# Profile Compression settings. Method: Running Average, using 5 datapoints
# Profile Smoothing is Disabled
#	Mo+	CsMo+	Al+	Na+	K+	O+	Si+	
#	97.9038	230.7907	26.9827	22.9916	38.9657	15.9962	27.9766	
#Sputter Time (s)	Intensity(Background Corrected)	Intensity(Background Corrected)	Intensity(Background Corrected)	Intensity(Background Corrected)	Intensity(Background Corrected)	Intensity(Background Corrected)	Intensity(Background Corrected)	
0.8192	659.245	15.0078	3.00302	96434	6696.76	47.0675	800.629	
2.4576	250.134	39.7299	1.66784	94211.8	2958.61	29.032	279.221	
4.096	156.884	50.7006	1.0007	88698.5	1919.36	22.4213	168.733	
5.7344	26.435	62.7364	0.800269	82563.1	640.371	14.6083	9.00692	
7.3728	15.409	67.5551	0.800269	75809	375.865	11.4044	2.60067	
9.0112	12.6055	74.1891	0.400171	69014.6	311.23	10.804	2.00033	
10.6496	11.0042	76.6002	0.400171	62209.6	286.744	8.00248	1.60028	
12.288	9.00282	83.2328	0.600189	56532.7	263.97	7.80236	1.00019	
13.9264	9.80326	84.0376	0.200018	51915.6	244.876	8.20249	1.00021	
15.5648	10.2037	90.072	0.200018	47515.2	226.816	7.6021	1.20023	
17.2032	10.0035	88.0603	0.200018	42752.2	213.439	6.20163	0.800134	
18.8416	10.6039	90.8801	0.200018	38585.3	194.578	7.40192	0.800122	
20.48	11.0041	92.6928	0	34696.7	184.056	6.00145	1.00015	
22.1184	9.8036	103.162	0	30938.1	172.329	4.6009	0.80011	
23.7568	9.40318	107.191	0.200006	27355.9	160.213	3.6005	0.600092	
25.3952	9.60319	113.233	0.200006	24191.2	145.88	3.40049	0.800122	
27.0336	8.60261	121.893	0.200006	21080	133.367	2.60029	0.600092	
28.672	8.80261	124.713	0.200006	18173.5	115.635	2.20026	0.600079	
30.3104	9.40279	123.505	0.200006	15498.7	101.133	1.60021	0.400049	
31.9488	8.20228	129.161	0	13123.5	89.4607	1.20013	0.400049	
33.5872	8.20257	135.213	0	11026.2	76.5945	1.00012	0.200018	
35.2256	8.60277	135.012	0.200006	9187.19	64.1327	0.400024	0.200018	
36.864	8.60277	135.817	0.400024	7573.74	59.3153	0.400024	0	
38.5024	10.2039	136.62	0.400024	6294.94	51.2884	1.00008	0.400073	
40.1408	10.6041	137.209	0.600055	5141.93	42.6628	1.00008	0.400073	
41.7792	10.6038	143.464	0.800073	4154.8	37.8505	1.20009	0.600092	
43.4176	10.604	140.438	0.600067	3363.75	34.4402	1.40009	0.800122	
45.056	10.6042	144.466	0.600067	2745.87	29.829	1.40009	0.800122	
46.6944	8.40278	153.961	0.600067	2227.02	27.8257	1.00004	0.400049	
48.3328	8.80288	156.19	0.400037	1825.21	26.8242	1.00004	0.400049	
49.9712	8.00249	156.796	0.200018	1479.4	27.0242	1.00004	0.200031	
51.6096	7.00203	161.648	0.200018	1216.35	23.0181	0.800037	0	
53.248	7.00179	163.874	0	994.016	22.0164	0.800037	0	
54.8864	7.40202	160.24	0	791.664	20.0138	0.600031	0	
56.5248	7.40202	165.088	0.200018	634.553	20.6144	0.400024	0	
58.1632	7.20199	165.902	0.400085	508.423	17.8105	0.400037	0	
59.8016	9.00303	172.964	0.400085	411.677	17.6104	0.400037	0	
61.44	9.00303	178.832	0.400085	336.4	16.0092	0.400037	0	
63.0784	8.6028	181.455	0.600116	274.271	16.4098	0.400037	0	
64.7168	8.4028	177.013	0.400098	230.124	14.0072	0.200018	0	
66.3552	8.60273	175.995	0.200031	194.655	14.8078	0	0.200043	
67.9936	7.40184	174.988	0.200031	161.278	15.0078	0	0.200043	
69.632	6.60152	171.742	0.200031	139.859	15.208	0	0.200043	
71.2704	7.20176	177.81	0.200006	121.689	13.6064	0	0.200043	
72.9088	7.00159	180.66	0.200006	111.004	15.2082	0	0.200043	
74.5472	6.60142	180.873	0.200006	102.55	13.8072	0	0.200043	
76.1856	6.40134	181.682	0.400037	96.3196	14.8083	0	0.200043	
77.824	6.40127	185.528	0.400037	85.8666	15.6087	0	0.400049	
79.4624	6.40127	183.508	0.200031	79.6319	16.4094	0	0.400049	
81.1008	7.80224	180.857	0.200031	69.7737	15.8087	0	0.400049	
82.7392	8.20251	182.065	0.200031	64.7533	15.208	0.200006	0.200006	
84.3776	8.60288	178.017	0	61.7368	13.4063	0.200006	0.200006	
86.016	8.80296	173.566	0	60.1279	12.6057	0.200006	0	
87.6544	9.60344	173.166	0	56.111	12.2051	0.200006	0	
89.2928	8.40255	171.951	0	57.3204	11.8045	0.200006	0.200006	
90.9312	8.60256	168.911	0	55.1108	13.206	0	0.200006	
92.5696	9.20271	167.707	0	57.3183	13.4061	0	0.200006	
94.208	9.00263	172.967	0	58.7264	13.0057	0	0.400037	
95.8464	7.80197	167.504	0.200006	59.1272	13.6063	0	0.400037	
97.4848	8.40228	168.512	0.400012	56.3102	13.2063	0	0.200031	
99.1232	8.80253	173.378	0.400012	56.7132	13.0059	0	0.200031	
100.762	8.80266	178.234	0.600031	54.1031	13.6064	0	0.200031	
102.4	8.80266	177.031	0.600031	50.891	15.0081	0	0	
104.038	9.60305	176.418	0.400024	48.0823	13.6071	0	0	
105.677	8.2025	177.226	0.200018	48.085	12.8063	0	0	
107.315	6.80186	174.379	0.400049	47.0807	13.207	0	0	
108.954	6.40148	178.22	0.200031	44.4743	12.4063	0	0	
110.592	7.60214	176.801	0.200031	45.2757	11.0049	0	0	
112.23	7.00183	180.043	0.200031	47.4818	12.0054	0	0.200006	
113.869	8.40263	179.847	0.200031	46.275	12.6057	0	0.200006	
115.507	9.00291	178.446	0	45.6728	12.2049	0	0.200006	
117.146	9.20303	174.812	0.200006	46.8771	12.2051	0	0.200006	
118.784	8.80288	179.272	0.200006	46.8777	11.2044	0	0.200006	
120.422	9.20319	182.105	0.200006	45.6739	11.6047	0	0	
122.061	9.00283	186.153	0.200006	44.0702	11.4048	0.200006	0	
123.699	8.6026	189.587	0.200006	43.4682	11.6052	0.200006	0	
125.338	7.60214	189.779	0	43.0696	11.0047	0.200006	0	
126.976	7.2018	186.932	0	40.4609	12.6058	0.200006	0	
128.614	7.00168	187.949	0.200031	37.6538	12.2058	0.200006	0.200018	
130.253	6.60154	189.557	0.200031	37.8529	11.8053	0.200006	0.400024	
131.891	6.60161	194.428	0.200031	38.6554	11.4047	0.200006	0.400024	
133.53	8.00248	198.479	0.200031	37.2487	13.4064	0.200006	0.400024	
135.168	7.80239	198.67	0.200031	40.6595	12.8058	0.200006	0.400024	
136.806	7.6022	203.128	0	41.6644	13.006	0.200006	0.200006	
138.445	7.80223	200.512	0.200031	44.4724	14.2072	0.200006	0	
140.083	7.40211	194.629	0.200031	44.6735	13.8069	0.200006	0	
141.722	6.2013	192.004	0.200031	46.4799	14.8088	0.200006	0	
143.36	7.6022	187.364	0.200031	45.2795	18.2135	0.200006	0	
144.998	8.00239	183.915	0.200031	44.675	18.8139	0.200006	0	
146.637	7.6023	184.313	0.200006	41.2664	19.6149	0	0	
148.275	9.00282	186.537	0.200006	40.8658	20.6157	0	0	
149.914	9.00282	187.949	0.200006	40.6631	18.6129	0	0	
151.552	7.40184	197.883	0.200006	37.6538	16.61	0	0	
153.19	7.40184	199.3	0.200006	39.4599	15.6091	0	0	
154.829	7.40176	196.477	0	38.2569	14.0073	0	0.200006	
156.467	7.40176	199.116	0	36.6521	14.0073	0	0.200006	
158.106	8.20216	196.485	0	35.8514	14.4075	0	0.200006	
159.744	8.40224	198.306	0	37.2533	13.6063	0.200006	0.200006	
161.382	8.60235	194.654	0	36.8514	15.0074	0.200006	0.200006	
163.021	9.00252	200.723	0	35.2481	15.6082	0.200006	0	
164.659	8.00211	199.916	0	34.446	14.6073	0.200006	0	
166.298	7.20172	203.56	0	33.8422	13.6065	0.200006	0.200031	
167.936	7.00164	203.36	0	32.4391	12.8058	0	0.200031	
169.574	6.40133	205.387	0	33.2419	13.8073	0	0.400037	
171.213	6.00116	203.969	0	32.2406	14.2072	0	0.400037	
172.851	6.20132	198.894	0	35.6522	14.6077	0	0.400037	
174.49	6.8016	201.515	0	34.0504	15.4086	0	0.200006	
176.128	8.60275	203.519	0	34.25	17.6109	0	0.200006	
177.766	8.80285	198.86	0	33.8499	17.0101	0	0	
179.405	9.60348	197.636	0	35.0513	16.4101	0	0	
181.043	10.6039	203.919	0	31.0392	16.4101	0	0	
182.682	12.2051	200.494	0	32.0414	15.8093	0.200006	0	
184.32	10.8042	192.198	0	31.2412	14.4075	0.200006	0	
185.958	10.6043	201.726	0	28.4326	13.4062	0.200006	0	
187.597	10.404	206.791	0	28.8344	14.2067	0.200006	0	
189.235	11.4048	205.98	0	28.4333	14.6072	0.200006	0.200006	
190.874	9.4034	207.392	0	27.4315	15.0078	0	0.200006	
192.512	9.60341	207.992	0	26.8284	15.008	0	0.200006	
194.15	10.6041	205.55	0	27.2295	14.2074	0	0.200006	
195.789	10.8043	207.798	0	30.0349	15.4086	0	0.400012	
197.427	8.603	204.956	0	29.4339	15.6087	0	0.200006	
199.066	8.00271	204.748	0	30.6354	15.008	0	0.200006	
200.704	7.00236	212.252	0	30.6373	14.8077	0	0.200006	
202.342	6.00149	211.047	0	30.0355	15.2081	0	0.200006	
203.981	4.80085	204.952	0	25.4268	14.0067	0	0	
205.619	5.00093	208.607	0	26.2284	13.4058	0	0	
207.258	5.60114	205.768	0	26.2288	14.2064	0	0	
208.896	6.00121	205.357	0	28.0308	14.8073	0	0	
210.534	6.60152	211.64	0	29.8344	15.0073	0	0	
212.173	7.40181	212.846	0.200018	31.0365	13.6062	0	0	
213.811	7.40174	216.077	0.200018	32.2394	13.4063	0	0	
215.45	7.80194	220.951	0.200018	31.8377	12.6058	0	0	
217.088	8.00202	213.251	0.200018	30.2345	11.2045	0	0	
218.726	7.6018	204.53	0.200018	27.8309	12.2055	0	0.200006	
220.365	7.4017	205.352	0	27.8299	13.4065	0	0.200006	
222.003	7.40178	201.508	0.200018	27.8286	14.8075	0	0.200006	
223.642	7.40178	192.393	0.200018	28.2299	16.4088	0	0.200006	
225.28	7.2017	197.453	0.200018	29.233	17.2095	0	0.200006	
226.918	7.80205	198.666	0.200018	29.2326	14.4075	0	0	
228.557	8.60249	200.293	0.200018	29.633	14.4077	0	0	
230.195	10.4036	200.301	0	27.2295	12.4059	0	0	
231.834	9.20313	212.251	0	25.6262	11.8052	0	0	
233.472	10.2038	213.668	0	25.425	11.8051	0.200006	0	
235.11	9.20326	214.276	0.200006	27.0285	12.8055	0.200006	0	
236.749	9.4034	218.942	0.200006	26.4275	11.4043	0.200006	0	
238.387	8.40276	222.386	0.400049	26.8281	12.8054	0.200006	0	
240.026	9.6032	225.424	0.400049	27.4296	12.6055	0.200006	0.200018	
241.664	8.40248	220.159	0.400049	25.4261	12.8057	0	0.400037	
243.302	9.403	218.941	0.200043	24.0235	12.4055	0	0.400037	
244.941	8.00227	216.298	0.200043	24.2247	13.206	0	0.400037	
246.579	7.80214	215.084	0	23.6239	13.206	0	0.400037	
248.218	7.40195	206.166	0	21.2193	13.8063	0.200006	0.400037	
249.856	8.60267	210.42	0	21.0183	12.6053	0.200006	0.400024	
251.494	8.6028	216.708	0	20.0156	14.0065	0.200006	0.400024	
253.133	9.60326	218.522	0	21.0172	14.6072	0.400012	0.600055	
254.771	9.00295	219.536	0	20.4161	14.8075	0.400012	0.600055	
256.41	8.80294	222.388	0	23.8224	14.0067	0.200006	0.400037	
258.048	8.60268	228.891	0.200006	24.0234	13.6066	0.200006	0.200031	
259.686	7.80228	228.682	0.200006	27.2302	14.007	0.200006	0.200031	
261.325	7.60216	227.671	0.200006	25.6278	12.6059	0	0	
262.963	7.80217	231.11	0.200006	26.6292	10.8045	0	0	
264.602	8.00217	235.966	0.200006	24.2265	11.2048	0	0	
266.24	8.80276	229.263	0	25.0284	13.0063	0	0	
267.878	8.00238	218.536	0	22.6234	12.4055	0	0	
269.517	6.80194	212.049	0	21.4212	13.8065	0	0	
271.155	7.20214	200.698	0	20.62	14.2066	0	0	
272.794	7.80245	195.224	0	20.0179	13.0058	0	0	
274.432	7.00198	195.427	0	18.2145	12.4053	0	0.200018	
276.07	8.40263	201.295	0	15.2105	13.0059	0	0.200018	
277.709	9.20296	203.523	0	14.8098	13.0061	0	0.200018	
279.347	8.80285	214.062	0	15.2107	13.2062	0	0.200018	
280.986	8.40272	216.895	0	14.6091	14.6073	0	0.200018	
282.624	8.80287	220.546	0.200006	15.6103	15.0077	0	0	
284.262	8.80287	230.081	0.200006	16.8115	14.2071	0	0	
285.901	8.80287	235.156	0.200006	18.8142	13.6064	0	0	
287.539	9.60322	237.389	0.200006	19.415	13.2061	0	0.200006	
289.178	10.2035	241.856	0.200006	22.0186	12.0051	0	0.200006	
290.816	9.20298	237.595	0	22.0191	11.0042	0	0.200006	
292.454	9.20286	228.873	0	21.8189	10.2036	0	0.400012	
294.093	10.4035	218.74	0	22.4203	10.0036	0	0.400012	
295.731	11.2043	211.639	0.200006	22.6209	10.8047	0	0.200006	
297.37	11.0042	202.116	0.200006	23.0216	11.405	0	0.200006	
299.008	11.4044	206.785	0.200006	22.4206	13.0061	0	0.200006	
300.646	10.8041	206.595	0.200006	24.8232	13.8067	0	0	
302.285	10.604	220.379	0.200006	21.4188	15.0079	0	0	
303.923	9.20298	226.265	0	21.2182	15.2076	0	0	
305.562	9.00286	226.856	0	17.2134	15.6079	0	0.200006	
307.2	8.20247	223.004	0	17.6149	14.207	0	0.200006	
308.838	8.00254	225.215	0	15.4134	14.2068	0	0.200006	
310.477	7.20205	212.239	0	15.0127	13.2057	0	0.200006	
312.115	8.2025	210.417	0	14.2114	15.0078	0	0.200006	
313.754	7.2022	216.719	0	13.4107	15.008	0	0	
315.392	7.80238	219.144	0	12.2077	16.2088	0	0	
317.03	7.8023	219.758	0	12.6081	15.4084	0	0	
318.669	8.20264	233.343	0	14.2096	15.2082	0	0	
320.307	6.80183	231.715	0.200006	13.4087	13.8067	0	0	
321.946	7.80213	232.103	0.200006	15.01	13.8065	0	0	
323.584	7.40203	237.385	0.200006	14.61	14.0068	0	0	
325.222	9.20311	247.347	0.200006	13.6083	15.408	0	0	
326.861	8.60268	246.135	0.400037	14.0092	17.8109	0	0	
328.499	9.6032	244.71	0.200031	13.809	15.8092	0	0	
330.138	10.4037	242.073	0.200031	13.6089	17.0105	0	0	
331.776	10.4037	231.322	0.200031	15.8139	15.4092	0	0	
333.414	9.4029	225.009	0.200031	18.8178	16.2099	0	0	
335.053	9.40299	215.676	0	18.6175	14.6076	0	0	
336.691	8.40247	214.665	0	19.6186	16.2089	0	0	
338.33	7.00165	222.997	0	20.4192	14.207	0	0	
339.968	6.80159	234.357	0	18.4147	14.0069	0.200006	0	
341.606	7.60217	230.29	0	16.6121	12.6058	0.200006	0.200031	
343.245	7.40208	237.388	0	15.8107	11.405	0.400012	0.200031	
344.883	8.20247	238.811	0	15.2102	11.0048	0.400012	0.200031	
346.522	8.20247	230.079	0	14.2092	12.4059	0.400012	0.200031	
348.16	10.0035	224.181	0	14.0095	14.2072	0.200006	0.200031	
349.798	9.40319	230.074	0	14.8101	15.2078	0.200006	0	
351.437	10.4038	230.482	0	15.0101	15.2077	0	0	
353.075	9.80346	234.748	0	14.8101	14.8072	0	0	
354.714	10.2037	237.387	0	16.8136	14.607	0	0	
356.352	8.00263	227.27	0	17.2131	12.8057	0	0	
357.99	6.60185	226.051	0	14.8111	13.0062	0	0	
359.629	5.60134	227.05	0	15.8131	13.4066	0	0	
361.267	5.00114	222.386	0	15.4125	14.2071	0	0	
362.906	4.00074	226.248	0	13.6088	12.8059	0.200018	0	
364.544	5.00114	240.034	0	12.8084	13.4065	0.200018	0	
366.182	6.00165	237.201	0.200006	13.6092	12.0049	0.200018	0	
367.821	7.60264	233.967	0.400037	13.8093	12.8056	0.200018	0.200031	
369.459	9.40357	238.628	0.400037	15.2112	12.005	0.200018	0.200031	
371.098	10.2038	236.187	0.400037	15.4116	12.8056	0	0.200031	
372.736	9.80351	230.09	0.400037	16.8125	12.8057	0	0.200031	
374.374	10.2036	234.346	0.200031	17.2135	13.0059	0	0.200031	
376.013	9.80317	241.637	0	15.8115	12.2057	0	0	
377.651	9.00263	240.834	0	14.8097	12.8062	0	0	
379.29	9.20272	244.087	0	15.01	11.8055	0	0	
380.928	10.4034	247.558	0.200006	16.0118	12.2055	0	0	
382.566	9.60294	244.317	0.200006	15.6105	13.0063	0.400024	0	
384.205	9.00256	244.74	0.200006	15.4109	13.2057	0.600031	0	
385.843	8.80245	247.782	0.200006	16.6132	14.2072	0.600031	0	
387.482	8.40228	241.477	0.400012	16.8134	15.2079	0.600031	0	
389.12	8.00202	241.249	0.200006	15.0116	15.6084	0.600031	0	
390.758	8.60233	244.088	0.200006	13.6102	13.4069	0.200006	0	
392.397	7.80198	237.386	0.200006	13.8098	12.6063	0	0	
394.035	8.60247	230.081	0.200006	11.4069	12.2054	0	0	
395.674	9.60299	230.699	0	11.2073	13.0062	0	0.200031	
397.312	9.60311	232.336	0	13.41	13.8067	0	0.200031	
398.95	9.20289	228.479	0.200031	15.0116	14.8072	0	0.200031	
400.589	9.20289	233.567	0.200031	15.0115	13.8068	0	0.400037	
402.227	8.00223	234.779	0.200031	16.4126	13.2064	0	0.400037	
403.866	7.2018	236.189	0.200031	16.2116	14.4079	0	0.200006	
405.504	6.00121	240.241	0.200031	14.6087	12.0061	0	0.200006	
407.142	5.60111	238.415	0	14.4081	14.0081	0	0.200006	
408.781	4.80096	235.76	0	13.4078	17.0102	0	0	
410.419	4.40084	239.009	0	14.4091	17.01	0	0	
412.058	4.20084	243.693	0	13.4087	15.008	0	0	
413.696	4.00074	241.886	0	14.4119	16.8094	0	0	
415.334	4.40084	253.259	0	14.2122	15.0077	0	0	
416.973	5.40106	257.735	0	14.8125	13.2061	0	0	
418.611	5.80125	257.726	0	13.6109	13.8067	0	0	
420.25	7.40216	255.686	0.200006	13.6104	13.6062	0	0	
421.888	7.80231	258.323	0.200006	11.4064	12.6053	0	0	
423.526	8.80296	256.286	0.800098	11.6064	12.2051	0.200006	0	
425.165	9.40323	252.628	0.800098	12.8078	11.6048	0.200006	0	
426.803	9.60324	259.33	0.800098	12.0072	11.2044	0.200006	0	
428.442	7.80225	258.926	0.600092	12.4075	11.0044	0.200006	0	
430.08	7.80219	256.271	0.600092	13.2085	11.4046	0.200006	0	
431.718	6.00126	249.567	0	11.8075	12.0054	0	0	
433.357	6.00126	245.903	0	9.8057	12.2055	0	0	
434.995	6.20136	242.651	0	10.0055	11.8053	0	0	
436.634	7.60203	238.794	0	11.0063	13.2065	0	0	
438.272	8.00217	239.197	0	10.4053	13.2066	0	0	
439.91	9.00257	249.769	0	9.80459	13.4062	0	0.200018	
441.549	8.80276	254.436	0.200018	11.005	15.4078	0	0.200018	
443.187	9.4031	254.658	0.200018	11.0057	17.0093	0	0.200018	
444.826	8.80293	263.81	0.200018	9.805	16.2084	0	0.200018	
446.464	9.60337	257.314	0.200018	8.80464	15.6079	0	0.200018	
448.102	8.60297	248.982	0.200018	9.60542	15.808	0	0	
449.741	8.40259	251.836	0	10.2066	13.6064	0	0	
451.379	7.40207	253.643	0	10.6061	12.8054	0.200006	0	
453.018	7.20175	253.84	0	10.806	13.0058	0.200006	0	
454.656	7.00174	259.943	0	11.4062	14.4072	0.200006	0.200006	
456.294	7.2018	259.343	0	13.4077	13.6065	0.200006	0.200006	
457.933	7.6021	255.907	0	14.0082	14.407	0.200006	0.200006	
459.571	7.40203	256.325	0	13.6082	13.8064	0	0.200006	
461.21	6.8018	254.897	0	13.8082	15.2079	0	0.200006	
462.848	5.60116	257.94	0	14.0091	13.4063	0	0	
464.486	5.60116	264.437	0	12.0074	13.2062	0.200006	0	
466.125	5.20085	264.218	0.200006	9.60526	13.2062	0.200006	0	
467.763	5.80109	259.748	0.200006	10.8061	13.0063	0.200006	0	
469.402	6.60154	252.032	0.200006	10.0057	11.8051	0.200006	0	
471.04	6.60159	251.428	0.400012	11.4075	13.6065	0.200006	0	
472.678	6.40159	254.271	0.400012	12.0076	15.2078	0	0	
474.317	6.80178	255.284	0.200006	12.8082	17.4103	0	0	
475.955	6.00149	265.259	0.200006	12.6089	17.0097	0	0.200006	
477.594	5.00098	275.83	0.200006	13.6094	17.2097	0	0.200006	
479.232	5.40106	276.03	0	12.407	19.0121	0	0.200006	
480.87	7.00179	270.134	0	12.4075	18.6118	0	0.200006	
482.509	6.40159	274.417	0	12.0072	17.21	0	0.200006	
484.147	6.00151	269.318	0	11.0058	16.0095	0	0	
485.786	7.20203	267.913	0	10.0054	15.8092	0	0	
487.424	7.20203	269.334	0	10.6064	12.0054	0	0	
489.062	6.80176	274.824	0	9.40539	12.8063	0	0	
490.701	6.60162	270.343	0	10.2063	13.6072	0	0	
492.339	7.20175	271.57	0	10.0063	14.2073	0	0	
493.978	7.60216	263.215	0	10.0061	14.808	0	0	
495.616	8.00243	257.921	0	10.0055	17.4102	0	0	
497.254	7.60231	257.498	0	10.6061	16.209	0	0.200018	
498.893	8.20255	262.6	0	11.0059	14.8078	0	0.200018	
500.531	9.60327	264.013	0	10.8055	17.4104	0	0.200018	
502.17	9.00274	270.526	0	11.006	16.6097	0	0.200018	
503.808	9.40299	272.363	0	10.806	15.609	0.200006	0.200018	
505.446	9.60321	273.395	0	10.6056	15.6087	0.200006	0	
507.085	9.60321	271.545	0.200031	9.20497	15.2083	0.200006	0	
508.723	8.60272	264.436	0.200031	9.40544	13.206	0.200006	0	
510.362	8.00244	262.408	0.200031	9.80562	13.4061	0.200006	0	
512	8.60274	267.917	0.200031	8.40456	13.0053	0	0	
513.638	8.80264	260.595	0.200031	8.20423	12.2048	0	0	
515.277	10.4038	262.825	0.400085	8.40451	14.6071	0	0	
516.915	11.004	260.585	0.400085	8.00399	15.2079	0	0	
518.554	11.4042	260.565	0.400085	8.60409	14.6075	0	0	
520.192	11.0039	258.92	0.400085	9.00462	15.6085	0	0	
521.83	11.0039	264.199	0.400085	9.40501	17.6105	0	0	
523.469	9.00257	268.067	0	9.80514	15.4084	0	0	
525.107	8.80245	277.024	0	9.20479	14.8076	0	0	
526.746	8.80245	284.977	0	8.20396	14.0069	0	0	
528.384	8.40221	287.013	0.200031	7.80328	12.6058	0	0	
530.022	8.20209	284.589	0.200031	7.60337	11.6045	0	0	
531.661	10.4036	274.826	0.200031	7.60283	13.406	0	0	
533.299	10.6039	272.578	0.200031	8.80364	13.206	0	0	
534.938	10.6039	265.026	0.200031	8.60344	15.6084	0	0	
536.576	9.80354	259.54	0	9.20375	15.008	0	0.200006	
538.214	11.0046	260.543	0	9.20365	14.0072	0	0.200006	
539.853	8.80305	271.536	0	8.60389	13.4066	0	0.200006	
541.491	8.40281	277.032	0	8.8042	15.2083	0	0.200006	
543.13	7.80257	276.834	0	9.00501	13.6068	0	0.200006	
544.768	7.80263	276.427	0	9.00545	15.2079	0	0	
546.406	6.20137	279.683	0	9.20563	16.8097	0	0	
548.045	6.80176	275.192	0	9.80566	15.4087	0	0.200006	
549.683	6.40149	273.569	0.200006	9.80593	13.6069	0	0.200006	
551.322	6.60156	276.616	0.200006	8.80511	13.8069	0	0.200006	
552.96	8.00222	275.194	0.200006	8.60465	13.8069	0	0.200006	
554.598	7.40207	270.105	0.200006	9.00489	13.2062	0	0.400024	
556.237	8.00249	264.624	0.200006	8.80498	14.8075	0	0.400024	
557.875	9.00301	255.464	0	7.60357	15.4079	0	0.400024	
559.514	10.404	259.745	0	8.00352	16.8096	0	0.400024	
561.152	8.8032	263.6	0	8.0036	15.8089	0	0.400024	
562.79	9.40335	270.933	0	7.00308	16.2093	0	0.200006	
